# Created by:        SpecsLab2, Version 2.77-r27212
# 
# XY-Serializer Export Settings: as follows
#   Comment Prefix:           #
#   Counts Per Second:        yes
#   Kinetic Energy Axis:      yes
#   Separate Scan Data:       no
#   Separate Channel Data:    no
#   External Channel Data:    no
#   Transmission Function:    no
#   ErrorBar:                 no
# 
# Group:             Si_sub
#
# values in kinetic energy
# Region:            over_1400eV
# Acquisition Date:  05/19/11 09:21:25
# Analysis Method:   XPS
# Analyzer:          PHOIBOS HSA3500 DLSEGD 150 R6[HWType 30:15] DLSEGD
# Analyzer Lens:     MediumArea:1.5kV
# Analyzer Slit:     1:0.2x20\1:0.25x20
# Scan Mode:         FixedAnalyzerTransmission
# Number of Scans:   1
# Curves/Scan:       1
# Values/Curve:      1303
# Dwell Time:        0.15
# Excitation Energy: 1400
# Kinetic Energy:    100
# Pass Energy:       30
# Bias Voltage:      80
# Detector Voltage:  1950
# Eff. Workfunction: 4.387
# Source:            AMC-Monochromator
# Remote:            RemoteInput
#                    test comment 1
#
# RemoteInfo: RemoteInput
# Parameter: "ADC channel 1 active" = true
# Parameter: "    channel 1 name" = TEY (old: I0)
# Parameter: "    channel 1 input scaling" = 1.000000
# Parameter: "ADC channel 2 active" = false
# Parameter: "    channel 2 name" = 3
# Parameter: "    channel 2 input scaling" = 1.000000
# Parameter: "ADC channel 3 active" = true
# Parameter: "    channel 3 name" = I0 (old: TEY)
# Parameter: "    channel 3 input scaling" = 1.000000
# Parameter: "ADC channel 4 active" = false
# Parameter: "    channel 4 name" = 4
# Parameter: "    channel 4 input scaling" = 1.000000
# Parameter: "ADC channel 5 active" = false
# Parameter: "    channel 5 name" = 5
# Parameter: "    channel 5 input scaling" = 1.000000
# Parameter: "ADC channel 6 active" = false
# Parameter: "    channel 6 name" = 6
# Parameter: "    channel 6 input scaling" = 1.000000
# Parameter: "ADC channel 7 active" = false
# Parameter: "    channel 7 name" = 7
# Parameter: "    channel 7 input scaling" = 1.000000
# Parameter: "ADC channel 8 active" = false
# Parameter: "    channel 8 name" = 
# Parameter: "    channel 8 input scaling" = 1.000000
# Parameter: "Logfile" = 

# Cycle: 0
#
# Cycle: 0, Curve: 0
# scaling factors added
#
# ColumnLabels: energy counts/s scaling
#
100  8974.5144  1
101  8422.512  1
102  8985.2648  1
103  8437.5895  1
104  8783.6797  1
105  8479.8148  1
106  8785.5575  1
107  8635.5218  1
108  8112.6254  1
109  8180.9431  1
110  8024.5746  1
111  8406.5615  1
112  8476.6684  1
113  8031.6321  1
114  8006.892  1
115  8260.0848  1
116  7869.4411  1
117  8000.9121  1
118  7754.0894  1
119  7872.1048  1
120  7561.1845  1
121  7975.0635  1
122  7495.7446  1
123  7797.6254  1
124  7501.1406  1
125  7233.7431  1
126  7443.2992  1
127  7594.3539  1
128  7439.8241  1
129  7312.1047  1
130  7320.7429  1
131  7267.8323  1
132  7160.6408  1
133  7377.8954  1
134  7231.3886  1
135  7169.2666  1
136  7304.4548  1
137  7096.6204  1
138  7323.0599  1
139  6910.1453  1
140  7090.3824  1
141  7267.4357  1
142  6936.2621  1
143  7185.3467  1
144  6951.292  1
145  6790.3044  1
146  7170.7323  1
147  6979.3416  1
148  6602.7562  1
149  6993.9621  1
150  6802.0551  1
151  6579.7409  1
152  6842.3493  1
153  6984.0965  1
154  6900.9259  1
155  6786.5032  1
156  6734.8188  1
157  6525.4445  1
158  6628.9514  1
159  6741.6641  1
160  7024.0559  1
161  6730.1312  1
162  6295.1158  1
163  6541.2028  1
164  6663.4851  1
165  6907.6448  1
166  6760.5473  1
167  6055.3172  1
168  6637.7396  1
169  6683.0204  1
170  6956.5227  1
171  6976.5751  1
172  6703.709  1
173  7104.5498  1
174  6319.5744  1
175  6126.0825  1
176  5675.9798  1
177  6172.1509  1
178  5803.6125  1
179  5830.118  1
180  5616.4497  1
181  5064.5229  1
182  5497.5732  1
183  5338.6707  1
184  5087.651  1
185  5259.3446  1
186  5211.4114  1
187  5086.8008  1
188  5372.8379  1
189  5169.7849  1
190  4980.2742  1
191  5026.029  1
192  4862.1542  1
193  5135.3893  1
194  4823.9626  1
195  4694.4405  1
196  5248.9419  1
197  5212.5908  1
198  5101.1035  1
199  5250.9544  1
200  5237.2042  1
201  5349.0611  1
202  4760.7812  1
203  4902.1365  1
204  5066.1033  1
205  5223.3884  1
206  5050.0644  1
207  4960.0252  1
208  4984.2166  1
209  4812.2478  1
210  4964.8373  1
211  4891.8911  1
212  5141.0273  1
213  4577.8785  1
214  5069.341  1
215  5231.797  1
216  4720.6146  1
217  5035.8382  1
218  4928.1073  1
219  5160.8112  1
220  4817.0739  1
221  5317.8046  1
222  4992.7122  1
223  4937.5227  1
224  4980.5792  1
225  4859.9076  1
226  4925.1751  1
227  5299.8478  1
228  5201.8264  1
229  4814.9291  1
230  5121.7773  1
231  5432.5585  1
232  4880.7446  1
233  4873.3114  1
234  5274.5891  1
235  5133.2777  1
236  5178.07  1
237  5210.9964  1
238  5104.3197  1
239  5060.9968  1
240  5123.9055  1
241  5533.6928  1
242  5135.5086  1
243  5644.1448  1
244  5669.1719  1
245  5557.756  1
246  5553.165  1
247  5643.4949  1
248  5490.2759  1
249  5613.9358  1
250  5462.218  1
251  4995.3011  1
252  5132.6488  1
253  5389.9736  1
254  5764.2841  1
255  5501.4822  1
256  5780.8328  1
257  5746.538  1
258  5927.4935  1
259  5791.7847  1
260  5638.2543  1
261  5981.2939  1
262  5578.344  1
263  5816.4367  1
264  5720.6388  1
265  5827.8807  1
266  5454.5466  1
267  5392.1665  1
268  5257.2678  1
269  5207.5808  1
270  4922.9236  1
271  5267.7712  1
272  5181.1257  1
273  5123.3244  1
274  4631.8665  1
275  5055.3089  1
276  5019.8864  1
277  4796.7849  1
278  4784.5237  1
279  4615.9779  1
280  4885.4178  1
281  4987.1241  1
282  4783.5256  1
283  5576.3624  1
284  4582.3212  1
285  5012.864  1
286  5109.7739  1
287  5062.5139  1
288  4819.9339  1
289  4718.0324  1
290  4838.6286  1
291  5318.899  1
292  4705.7958  1
293  5029.6024  1
294  4691.939  1
295  4894.7119  1
296  4961.9617  1
297  4875.2783  1
298  4904.0916  1
299  5169.6051  1
300  4952.3552  1
301  4922.2286  1
302  4725.4825  1
303  5243.4784  1
304  5200.6768  1
305  4979.0408  1
306  5156.7006  1
307  4983.0775  1
308  5413.9929  1
309  4917.2485  1
310  5243.8677  1
311  5152.0171  1
312  5068.6211  1
313  4902.5  1
314  4682.9992  1
315  5330.8778  1
316  5098.654  1
317  4640.6178  1
318  4994.1943  1
319  5017.6861  1
320  4889.4986  1
321  5289.0117  1
322  5351.1626  1
323  5183.8298  1
324  5332.6867  1
325  5452.631  1
326  5944.1114  1
327  6273.8822  1
328  5784.6957  1
329  5126.2976  1
330  5361.2474  1
331  5057.3354  1
332  5572.9893  1
333  5366.5167  1
334  5442.7909  1
335  5128.2074  1
336  5381.3641  1
337  5388.8384  1
338  5156.0477  1
339  4915.99  1
340  5199.21  1
341  5449.8639  1
342  5297.8989  1
343  5556.687  1
344  5471.0929  1
345  5564.9405  1
346  5320.9431  1
347  5547.1841  1
348  5563.6647  1
349  5214.5391  1
350  5378.5014  1
351  5604.5932  1
352  5517.4043  1
353  5774.4992  1
354  6189.6742  1
355  5223.2453  1
356  5601.6835  1
357  5638.8628  1
358  5818.0451  1
359  5671.4444  1
360  5609.3805  1
361  5444.5506  1
362  5517.5271  1
363  5752.3197  1
364  5990.5238  1
365  5529.0321  1
366  5578.426  1
367  5685.9761  1
368  5692.5654  1
369  5616.7324  1
370  5734.7426  1
371  5686.6058  1
372  5672.4207  1
373  5668.0182  1
374  5822.13  1
375  6429.9271  1
376  5777.9099  1
377  6168.7579  1
378  6215.4908  1
379  5872.4889  1
380  6065.7778  1
381  6034.0694  1
382  6078.4369  1
383  6498.4842  1
384  5690.2712  1
385  6019.75  1
386  6092.9268  1
387  6235.818  1
388  6302.7986  1
389  6143.9082  1
390  6369.8285  1
391  6232.7829  1
392  5671.1388  1
393  5870.2819  1
394  6046.8642  1
395  6203.4028  1
396  6176.1542  1
397  6291.3547  1
398  6185.5891  1
399  6134.1187  1
400  6192.3261  1
401  6212.3652  1
402  5994.6346  1
403  6584.0272  1
404  6478.7043  1
405  6265.4017  1
406  5912.96  1
407  6302.9368  1
408  6210.2754  1
409  6906.9673  1
410  6653.3903  1
411  6645.6648  1
412  6254.1526  1
413  6594.7513  1
414  6139.8016  1
415  6674.6287  1
416  6521.8831  1
417  6783.532  1
418  6997.4447  1
419  6534.3387  1
420  6663.4392  1
421  6762.2352  1
422  7252.2868  1
423  6661.8887  1
424  6975.8886  1
425  6628.3292  1
426  6930.9098  1
427  7104.7596  1
428  7136.1986  1
429  6742.4032  1
430  7015.3932  1
431  6675.0249  1
432  6781.1135  1
433  7422.9918  1
434  7216.403  1
435  7350.9683  1
436  7772.0144  1
437  7298.0025  1
438  7379.7302  1
439  7393.4784  1
440  7858.6361  1
441  7602.0238  1
442  7714.4488  1
443  7509.3384  1
444  7731.4823  1
445  7777.6649  1
446  8023.3589  1
447  8212.0556  1
448  7809.8188  1
449  8373.2404  1
450  8248.4414  1
451  7966.1023  1
452  8090.5506  1
453  8197.0861  1
454  8250.9989  1
455  8443.3025  1
456  8228.9322  1
457  8592.4894  1
458  8094.2014  1
459  8538.6686  1
460  8626.3197  1
461  9097.2292  1
462  9066.358  1
463  9217.0289  1
464  8936.0061  1
465  9465.9709  1
466  9848.8544  1
467  9624.3241  1
468  9908.0669  1
469  10533.158  1
470  10404.424  1
471  10342.106  1
472  10481.993  1
473  10245.374  1
474  9646.1511  1
475  10031.465  1
476  9882.0597  1
477  10315.499  1
478  10397.986  1
479  10297.987  1
480  10820.338  1
481  11237.285  1
482  11351.18  1
483  12240.17  1
484  12210.038  1
485  13301.598  1
486  12776.008  1
487  12995.272  1
488  12820.889  1
489  12202.797  1
490  11828.784  1
491  11320.525  1
492  12013.524  1
493  10992.869  1
494  11190.44  1
495  10491.157  1
496  10930.949  1
497  11030.875  1
498  11892.505  1
499  11915.187  1
500  11437.414  1
501  12392.296  1
502  13211.092  1
503  15751.064  1
504  16416.521  1
505  17863.92  1
506  20018.434  1
507  20739.894  1
508  20750.141  1
509  18429.483  1
510  15440.499  1
511  14086.359  1
512  12517.635  1
513  10822.532  1
514  9939.1682  1
515  9444.0466  1
516  8796.9679  1
517  7687.7662  1
518  7339.5567  1
519  6966.8887  1
520  6208.4329  1
521  6046.1342  1
522  5769.7837  1
523  5907.4244  1
524  5834.0668  1
525  5453.7637  1
526  6050.5372  1
527  6043.2722  1
528  5861.362  1
529  5654.693  1
530  5703.7063  1
531  5664.6582  1
532  5929.3989  1
533  5681.2549  1
534  5686.9102  1
535  5520.7872  1
536  5760.2304  1
537  6070.7332  1
538  5752.4344  1
539  5551.254  1
540  5864.9068  1
541  5781.4981  1
542  5949.6484  1
543  5937.9142  1
544  5779.8399  1
545  5550.7897  1
546  5675.15  1
547  5864.4918  1
548  5761.1111  1
549  5897.6112  1
550  6248.6981  1
551  6107.6283  1
552  6131.3555  1
553  5852.0974  1
554  5965.5632  1
555  6519.3051  1
556  6088.768  1
557  6121.8688  1
558  6039.8891  1
559  6107.9622  1
560  5880.268  1
561  6134.8768  1
562  6016.5905  1
563  6032.2004  1
564  5790.5291  1
565  6261.0113  1
566  6078.6332  1
567  6435.1402  1
568  6237.4749  1
569  6773.3093  1
570  6719.1398  1
571  6610.9361  1
572  6656.6932  1
573  6205.165  1
574  6261.8786  1
575  6374.8483  1
576  6404.5647  1
577  6676.3769  1
578  6255.4807  1
579  6426.2133  1
580  6882.86  1
581  6503.3864  1
582  6203.1778  1
583  6561.393  1
584  6705.9129  1
585  6516.522  1
586  6432.1211  1
587  6697.7159  1
588  6284.2783  1
589  6490.5399  1
590  6440.2122  1
591  6574.6336  1
592  6586.0254  1
593  6375.0311  1
594  6575.0261  1
595  6272.53  1
596  6654.7527  1
597  6748.4656  1
598  6439.7366  1
599  6436.3113  1
600  6870.1443  1
601  6370.2837  1
602  6793.4654  1
603  7128.1631  1
604  6805.4012  1
605  7135.8934  1
606  7074.707  1
607  6837.2285  1
608  6911.3487  1
609  7066.282  1
610  6967.8782  1
611  6875.9668  1
612  6971.1903  1
613  7197.8163  1
614  7230.7379  1
615  7035.075  1
616  7000.8077  1
617  7281.02  1
618  6721.5567  1
619  7030.5305  1
620  7469.0837  1
621  7251.3464  1
622  7236.5227  1
623  7166.2945  1
624  7258.5373  1
625  7095.9951  1
626  7531.651  1
627  7769.1572  1
628  7287.1418  1
629  7820.5572  1
630  7724.1022  1
631  7535.9385  1
632  7810.1695  1
633  7847.8227  1
634  7239.1218  1
635  7587.1255  1
636  7475.3437  1
637  7911.6271  1
638  7454.141  1
639  7526.5391  1
640  8281.7004  1
641  7096.6245  1
642  7695.33  1
643  7831.7752  1
644  7683.4602  1
645  7582.4372  1
646  8101.6124  1
647  7919.8012  1
648  7284.2705  1
649  7885.1349  1
650  8249.1145  1
651  8260.2792  1
652  8189.5387  1
653  8162.1275  1
654  7994.9863  1
655  8047.7887  1
656  8113.4573  1
657  8473.3731  1
658  8588.8618  1
659  8127.4065  1
660  8220.2053  1
661  8574.3511  1
662  7917.7913  1
663  8508.2253  1
664  8304.2079  1
665  8454.4303  1
666  8405.6928  1
667  8185.4303  1
668  8324.5712  1
669  8438.773  1
670  8411.685  1
671  7834.0707  1
672  8355.5749  1
673  8379.3244  1
674  8718.2604  1
675  8494.2373  1
676  8488.8225  1
677  8668.6245  1
678  8850.6886  1
679  8651.1158  1
680  8953.406  1
681  8898.8795  1
682  9028.0634  1
683  8528.4801  1
684  8580.0034  1
685  8926.9148  1
686  8782.224  1
687  8834.3842  1
688  8553.002  1
689  8983.0077  1
690  8973.8248  1
691  9037.6789  1
692  9070.7068  1
693  9211.2066  1
694  9012.9477  1
695  9422.9699  1
696  9210.4058  1
697  9321.8327  1
698  9213.3683  1
699  8963.8827  1
700  9079.6861  1
701  9337.5214  1
702  9164.1535  1
703  8973.7482  1
704  9190.9068  1
705  9168.6492  1
706  9138.1881  1
707  9621.5498  1
708  9161.2751  1
709  9423.505  1
710  9332.6162  1
711  9844.2752  1
712  10542.604  1
713  11590.82  1
714  11318.889  1
715  9965.6641  1
716  9467.8465  1
717  10078.895  1
718  9478.9597  1
719  9539.26  1
720  9754.6349  1
721  9342.7944  1
722  10054.209  1
723  10309.757  1
724  10057.425  1
725  10151.433  1
726  9643.4178  1
727  10219.966  1
728  10065.053  1
729  10529.71  1
730  10606.943  1
731  10532.305  1
732  10847.953  1
733  10048.703  1
734  10097.875  1
735  10734.673  1
736  11224.806  1
737  10431.74  1
738  10563.211  1
739  10521.19  1
740  9975.884  1
741  10522.774  1
742  11213.992  1
743  10717.963  1
744  10920.996  1
745  10662.508  1
746  10710.872  1
747  11448.998  1
748  11065.021  1
749  11474.139  1
750  10929.277  1
751  11267.019  1
752  11279.214  1
753  11311.733  1
754  11313.8  1
755  11319.937  1
756  11647.422  1
757  11833.416  1
758  11634.786  1
759  11798.394  1
760  11366.166  1
761  12169.422  1
762  12084.934  1
763  12373.165  1
764  11949.359  1
765  11817.956  1
766  12192.009  1
767  11975.899  1
768  12304.233  1
769  12385.897  1
770  12053.905  1
771  12578.644  1
772  12941.763  1
773  12641.929  1
774  13091.796  1
775  13256.147  1
776  13037.502  1
777  13356.864  1
778  12574.882  1
779  13431.902  1
780  12899.899  1
781  13206.179  1
782  13437.191  1
783  13790.306  1
784  13632.876  1
785  14128.773  1
786  13948.746  1
787  14450.076  1
788  13945.676  1
789  14342.434  1
790  14322.111  1
791  14177.418  1
792  14434.215  1
793  14679.855  1
794  14884.062  1
795  14712.779  1
796  14428.87  1
797  14601.527  1
798  15094.778  1
799  15086.739  1
800  16113.113  1
801  16070.947  1
802  15565.109  1
803  15858.524  1
804  16128.751  1
805  16704.232  1
806  16560.11  1
807  17253.62  1
808  16844.182  1
809  17222.954  1
810  17404.764  1
811  17922.993  1
812  17094.905  1
813  18170.505  1
814  18391.804  1
815  18392.737  1
816  18195.215  1
817  17292.026  1
818  18914.318  1
819  18491.173  1
820  18887.16  1
821  18689.985  1
822  18876.322  1
823  19810.576  1
824  18820.87  1
825  19305.171  1
826  19099.326  1
827  19814.577  1
828  20060.58  1
829  20216.441  1
830  19682.979  1
831  20288.571  1
832  20365.125  1
833  19946.783  1
834  19867.158  1
835  20698.158  1
836  21334.297  1
837  23005.902  1
838  23709.099  1
839  24945.116  1
840  25500.606  1
841  26102.404  1
842  26659.089  1
843  26526.065  1
844  28101.646  1
845  28217.121  1
846  26251.673  1
847  25247.808  1
848  24541.205  1
849  23051.227  1
850  22153.545  1
851  21976.896  1
852  20808.455  1
853  20772.219  1
854  20463.871  1
855  20352.798  1
856  19150.819  1
857  17976.209  1
858  16716.502  1
859  15989.558  1
860  16452.779  1
861  16369.805  1
862  16349.451  1
863  18074.591  1
864  21475.699  1
865  36551.362  1
866  139113.84  1
867  270499.58  1
868  129793.92  1
869  37269.85  1
870  18454.488  1
871  15313.479  1
872  13412.342  1
873  11973.891  1
874  12184.369  1
875  11384.238  1
876  12400.71  1
877  11127.277  1
878  10944.276  1
879  10846.423  1
880  10892.704  1
881  11286.078  1
882  10853.79  1
883  10912.622  1
884  11105.371  1
885  11350.915  1
886  11009.685  1
887  10746.389  1
888  11103.757  1
889  11045.101  1
890  11176.743  1
891  10830.184  1
892  11526.043  1
893  11385.453  1
894  11491.271  1
895  11339.1  1
896  11333.026  1
897  11455.709  1
898  11069.939  1
899  11230.462  1
900  11397.336  1
901  11893.151  1
902  11174.55  1
903  11749.592  1
904  11200.481  1
905  11541.865  1
906  11732.456  1
907  11758.676  1
908  11291.724  1
909  11603.65  1
910  11897.699  1
911  11914.486  1
912  11733.739  1
913  11630.576  1
914  12217.071  1
915  12239.791  1
916  11461.553  1
917  11855.337  1
918  11942.231  1
919  11853.887  1
920  12224.03  1
921  12761.662  1
922  12422.363  1
923  12065.632  1
924  11919.316  1
925  12180.412  1
926  12479.59  1
927  12202.442  1
928  12274.153  1
929  12194.267  1
930  12234.867  1
931  12542.494  1
932  12234.57  1
933  11909.042  1
934  12470.569  1
935  12234.538  1
936  12559.649  1
937  12349.001  1
938  12452.839  1
939  12520.689  1
940  12431.667  1
941  12491.849  1
942  12493.614  1
943  12583.896  1
944  13154.036  1
945  13021.328  1
946  12606.096  1
947  12654.017  1
948  12998.641  1
949  12859.057  1
950  13244.468  1
951  13026.704  1
952  12839.63  1
953  12851.988  1
954  12600.316  1
955  13143.428  1
956  13364.423  1
957  13072.868  1
958  14220.784  1
959  13273.253  1
960  13461.911  1
961  13491.651  1
962  13222.14  1
963  13531.196  1
964  13094.824  1
965  13567.274  1
966  13171.473  1
967  13529.032  1
968  13608.784  1
969  14246.182  1
970  13635.915  1
971  13402.312  1
972  13707.227  1
973  13495.55  1
974  13691.131  1
975  13785.714  1
976  14097.683  1
977  13911.72  1
978  13601.331  1
979  13874.506  1
980  14107.93  1
981  13722.269  1
982  14264.248  1
983  14126.092  1
984  14252.735  1
985  13926.824  1
986  14416.612  1
987  13850.387  1
988  13959.23  1
989  14001.932  1
990  13887.952  1
991  14130.07  1
992  14037.585  1
993  13632.483  1
994  14208.966  1
995  14543.488  1
996  14143.552  1
997  14599.988  1
998  14846.39  1
999  14913.329  1
1000  14930.683  1
1001  14861.751  1
1002  15026.779  1
1003  15252.009  1
1004  14371.59  1
1005  15303.742  1
1006  14594.669  1
1007  14968.836  1
1008  14652.808  1
1009  14256.399  1
1010  14473.817  1
1011  15089.588  1
1012  15605.015  1
1013  14854.218  1
1014  15487.746  1
1015  15739.947  1
1016  15808.612  1
1017  16832.849  1
1018  16183.124  1
1019  15733.074  1
1020  15928.73  1
1021  15510.186  1
1022  16117.657  1
1023  15538.695  1
1024  15518.329  1
1025  15265.134  1
1026  15273.099  1
1027  15305.36  1
1028  15568.561  1
1029  15362.854  1
1030  15456.774  1
1031  15697.944  1
1032  15518.533  1
1033  16133.624  1
1034  15934.389  1
1035  16371.461  1
1036  15414.745  1
1037  16148.667  1
1038  15527.475  1
1039  16329.081  1
1040  15874.201  1
1041  16628.794  1
1042  15694.167  1
1043  16061.055  1
1044  15861.294  1
1045  16287.653  1
1046  16456.212  1
1047  16727.731  1
1048  16271.199  1
1049  16224.397  1
1050  16605.809  1
1051  16199.908  1
1052  16603.076  1
1053  16728.39  1
1054  16290.371  1
1055  16890.678  1
1056  16752.941  1
1057  16647.315  1
1058  16742.662  1
1059  16620.23  1
1060  16759.333  1
1061  16887.234  1
1062  18041.425  1
1063  17782.56  1
1064  17408.155  1
1065  17958.049  1
1066  17548.468  1
1067  17490.303  1
1068  17807.13  1
1069  17132.319  1
1070  17616.423  1
1071  16908.238  1
1072  16940.329  1
1073  17110.47  1
1074  17558.936  1
1075  17837.339  1
1076  17362.991  1
1077  17679.375  1
1078  17491.933  1
1079  18498.027  1
1080  17626.553  1
1081  18003.832  1
1082  18176.024  1
1083  18856.768  1
1084  17999.711  1
1085  17912.132  1
1086  18782.542  1
1087  17228.05  1
1088  18112.359  1
1089  18682.134  1
1090  18322.936  1
1091  18158.29  1
1092  19228.864  1
1093  18528.064  1
1094  17992.444  1
1095  18554.807  1
1096  18961.995  1
1097  18691.262  1
1098  19611.329  1
1099  19244.137  1
1100  18861.538  1
1101  19021.692  1
1102  19330.3  1
1103  19526.192  1
1104  19264.985  1
1105  19514.45  1
1106  19796.549  1
1107  19310.605  1
1108  19461.665  1
1109  19608.016  1
1110  19966.445  1
1111  20048.713  1
1112  21782.482  1
1113  23233.923  1
1114  30152.396  1
1115  32644.656  1
1116  22253.358  1
1117  21052.886  1
1118  20788.865  1
1119  19306.063  1
1120  19263.789  1
1121  20158.915  1
1122  20296.32  1
1123  19896.545  1
1124  20183.364  1
1125  20606.716  1
1126  20577.716  1
1127  20206.466  1
1128  20032.117  1
1129  19782.357  1
1130  20193.276  1
1131  20551.277  1
1132  21076.269  1
1133  20089.307  1
1134  20517.679  1
1135  21509.541  1
1136  21143.001  1
1137  21353.523  1
1138  21801.184  1
1139  21505.731  1
1140  22481.373  1
1141  21689.002  1
1142  21517.717  1
1143  22371.196  1
1144  22498.648  1
1145  21808.231  1
1146  21774.704  1
1147  22450.771  1
1148  22926.664  1
1149  22357.339  1
1150  22516.114  1
1151  24031.143  1
1152  23605.4  1
1153  23358.277  1
1154  23541.571  1
1155  23151.138  1
1156  23555.657  1
1157  24341.66  1
1158  24212.633  1
1159  24372.259  1
1160  24860.202  1
1161  24659.994  1
1162  24424.697  1
1163  25137.527  1
1164  24613.772  1
1165  24866.228  1
1166  24974.114  1
1167  24115.878  1
1168  24829.663  1
1169  25750.775  1
1170  25636.692  1
1171  25345.214  1
1172  26650.955  1
1173  26988.132  1
1174  27131.748  1
1175  27528.166  1
1176  27768.205  1
1177  27605.815  1
1178  27963.323  1
1179  27132.566  1
1180  27134.256  1
1181  28354.946  1
1182  27969.022  1
1183  28434.365  1
1184  29335.858  1
1185  29770.757  1
1186  30073.189  1
1187  28854.896  1
1188  29391.524  1
1189  28345.697  1
1190  28435.981  1
1191  29350.872  1
1192  29034.903  1
1193  29638.03  1
1194  29633.951  1
1195  30329.363  1
1196  30991.415  1
1197  30131.645  1
1198  30183.195  1
1199  31083.247  1
1200  30541.538  1
1201  30612.381  1
1202  30247.776  1
1203  30412.83  1
1204  30284.124  1
1205  30026.954  1
1206  30022.555  1
1207  31416.074  1
1208  31811.475  1
1209  31304.648  1
1210  32730.706  1
1211  33605.577  1
1212  33941.287  1
1213  35270.498  1
1214  35959.464  1
1215  36277.161  1
1216  34475.838  1
1217  34497.233  1
1218  33160.542  1
1219  32391.46  1
1220  31777.489  1
1221  31319.886  1
1222  31600.793  1
1223  32444.219  1
1224  31990.294  1
1225  32156.931  1
1226  33402.777  1
1227  34864.842  1
1228  36295.05  1
1229  38963.109  1
1230  41245.094  1
1231  45681.349  1
1232  46253.988  1
1233  41899.332  1
1234  36234.487  1
1235  33684.953  1
1236  29844.745  1
1237  28478.19  1
1238  26740.407  1
1239  25903.188  1
1240  25339.682  1
1241  26102.574  1
1242  26587.202  1
1243  29642.397  1
1244  38836.881  1
1245  53172.319  1
1246  51688.554  1
1247  44391.986  1
1248  60937.558  1
1249  117682.09  1
1250  57973.271  1
1251  29039.439  1
1252  22558.258  1
1253  19513.106  1
1254  17976.767  1
1255  16937.376  1
1256  17070.254  1
1257  17209.364  1
1258  16972.099  1
1259  16686.844  1
1260  16830.729  1
1261  17522.527  1
1262  17797.857  1
1263  18621.337  1
1264  19342.276  1
1265  19540.796  1
1266  20038.459  1
1267  19862.646  1
1268  18889.193  1
1269  17424.547  1
1270  16343.957  1
1271  15926.463  1
1272  15383.685  1
1273  14866.254  1
1274  14778.154  1
1275  15260.39  1
1276  16234.374  1
1277  16079.455  1
1278  16669.865  1
1279  18355.511  1
1280  19305.82  1
1281  21004.656  1
1282  24888.801  1
1283  27235.364  1
1284  24186.464  1
1285  19612.236  1
1286  15813.433  1
1287  12373.585  1
1288  11222.514  1
1289  9652.6962  1
1290  9238.4235  1
1291  8629.3195  1
1292  8884.3836  1
1293  8097.7344  1
1294  8378.7762  1
1295  16155.712  1
1296  38248.846  1
1297  29528.166  1
1298  14197.101  1
1299  18802.891  1
1300  92435.844  1
1301  52501.287  1
1302  7150.3535  1
1303  3191.3957  1
1304  2701.2075  1
1305  2263.9346  1
1306  2070.5783  1
1307  1755.7554  1
1308  1988.3532  1
1309  1904.3575  1
1310  2268.2823  1
1311  3075.3586  1
1312  2358.5805  1
1313  2278.8744  1
1314  3244.8255  1
1315  2932.614  1
1316  2227.3056  1
1317  1846.2499  1
1318  1789.5039  1
1319  1810.0301  1
1320  1985.8824  1
1321  1778.0393  1
1322  1748.9335  1
1323  1733.547  1
1324  1967.4702  1
1325  1834.3039  1
1326  1987.9863  1
1327  1865.627  1
1328  1972.204  1
1329  1967.1571  1
1330  1887.836  1
1331  1853.3028  1
1332  2110.025  1
1333  2031.1281  1
1334  2145.2457  1
1335  2250.8561  1
1336  2059.7114  1
1337  2002.9663  1
1338  1968.3346  1
1339  2417.6036  1
1340  2034.8125  1
1341  2162.7019  1
1342  2172.1028  1
1343  2118.9753  1
1344  2434.0997  1
1345  2403.5708  1
1346  2347.5962  1
1347  2335.8235  1
1348  2402.1045  1
1349  2591.7709  1
1350  2494.0804  1
1351  2608.2713  1
1352  2493.1919  1
1353  2382.4242  1
1354  2603.8908  1
1355  2538.8489  1
1356  2772.4252  1
1357  2990.8916  1
1358  2976.596  1
1359  2947.0208  1
1360  3001.3795  1
1361  3589.2701  1
1362  3686.8575  1
1363  4008.2371  1
1364  3439.7713  1
1365  3585.9478  1
1366  3108.8292  1
1367  2897.7443  1
1368  3040.673  1
1369  3106.7653  1
1370  3274.6048  1
1371  4110.593  1
1372  4965.6876  1
1373  6095.6192  1
1374  8116.4428  1
1375  7894.2203  1
1376  5566.9156  1
1377  3412.3858  1
1378  2825.7926  1
1379  3748.807  1
1380  4744.7678  1
1381  5213.9624  1
1382  4338.2915  1
1383  2134.6301  1
1384  1989.8852  1
1385  2534.0628  1
1386  2539.6525  1
1387  2682.0325  1
1388  3219.8638  1
1389  3335.6258  1
1390  3170.6069  1
1391  3522.4424  1
1392  3805.8554  1
1393  3474.9116  1
1394  2304.703  1
1395  2100.3791  1
1396  1883.5509  1
1397  1739.0953  1
1398  1087.7528  1
1399  360.26087  1
1400  97.267331  1
1401  54.454171  1
1402  17.731333  1

# values in kinetic energy
# Region:            O1s
# Acquisition Date:  05/19/11 16:36:28
# Analysis Method:   XPS
# Analyzer:          PHOIBOS HSA3500 DLSEGD 150 R6[HWType 30:15] DLSEGD
# Analyzer Lens:     MediumArea:1.5kV
# Analyzer Slit:     1:0.2x20\1:0.25x20
# Scan Mode:         FixedAnalyzerTransmission
# Number of Scans:   1
# Curves/Scan:       1
# Values/Curve:      281
# Dwell Time:        0.2
# Excitation Energy: 640
# Kinetic Energy:    100
# Pass Energy:       10
# Bias Voltage:      80
# Detector Voltage:  1950
# Eff. Workfunction: 4.387
# Source:            AMC-Monochromator
# Remote:            RemoteInput
#                    test comment 2
#
# RemoteInfo: RemoteInput
# Parameter: "ADC channel 1 active" = true
# Parameter: "    channel 1 name" = TEY (old: I0)
# Parameter: "    channel 1 input scaling" = 1.000000
# Parameter: "ADC channel 2 active" = false
# Parameter: "    channel 2 name" = 3
# Parameter: "    channel 2 input scaling" = 1.000000
# Parameter: "ADC channel 3 active" = true
# Parameter: "    channel 3 name" = I0 (old: TEY)
# Parameter: "    channel 3 input scaling" = 1.000000
# Parameter: "ADC channel 4 active" = false
# Parameter: "    channel 4 name" = 4
# Parameter: "    channel 4 input scaling" = 1.000000
# Parameter: "ADC channel 5 active" = false
# Parameter: "    channel 5 name" = 5
# Parameter: "    channel 5 input scaling" = 1.000000
# Parameter: "ADC channel 6 active" = false
# Parameter: "    channel 6 name" = 6
# Parameter: "    channel 6 input scaling" = 1.000000
# Parameter: "ADC channel 7 active" = false
# Parameter: "    channel 7 name" = 7
# Parameter: "    channel 7 input scaling" = 1.000000
# Parameter: "ADC channel 8 active" = false
# Parameter: "    channel 8 name" = 
# Parameter: "    channel 8 input scaling" = 1.000000
# Parameter: "Logfile" = 

# Cycle: 0
#
# Cycle: 0, Curve: 0
# scaling factors added
#
# ColumnLabels: energy counts/s scaling
#
100  12471.753  1
100.05  12987.159  1
100.1  12884.238  1
100.15  12767.637  1
100.2  12678.175  1
100.25  12199.28  1
100.3  12949.519  1
100.35  12945.447  1
100.4  12685.367  1
100.45  12262.412  1
100.5  12673.226  1
100.55  12414.979  1
100.6  12563.255  1
100.65  12322.692  1
100.7  12758.537  1
100.75  12447.426  1
100.8  12029.401  1
100.85  11999.173  1
100.9  12612.484  1
100.95  12208.85  1
101  12349.838  1
101.05  12000.385  1
101.1  12000.739  1
101.15  12237.639  1
101.2  12384.398  1
101.25  12296.685  1
101.3  12583.998  1
101.35  12138.102  1
101.4  12364.272  1
101.45  11859.743  1
101.5  12201.976  1
101.55  12014.077  1
101.6  12245.59  1
101.65  12055.252  1
101.7  11859.651  1
101.75  11585.694  1
101.8  12097.427  1
101.85  12037.492  1
101.9  11861.913  1
101.95  12101.759  1
102  12188.106  1
102.05  11848.347  1
102.1  11697.403  1
102.15  11886.37  1
102.2  11956.645  1
102.25  11599.525  1
102.3  12375.349  1
102.35  11858.041  1
102.4  11786.809  1
102.45  11754.776  1
102.5  12091.572  1
102.55  11821.39  1
102.6  11678.233  1
102.65  11724.988  1
102.7  11680.087  1
102.75  11686.032  1
102.8  11437.893  1
102.85  11735.379  1
102.9  11661.223  1
102.95  11789.902  1
103  11677.844  1
103.05  11046.519  1
103.1  11243.127  1
103.15  11479.46  1
103.2  11037.831  1
103.25  11353.212  1
103.3  11254.018  1
103.35  11331.834  1
103.4  11365.598  1
103.45  11714.857  1
103.5  10933.133  1
103.55  11405.176  1
103.6  11557.396  1
103.65  11125.146  1
103.7  10708.632  1
103.75  10862.543  1
103.8  10824.425  1
103.85  10804.656  1
103.9  10786.29  1
103.95  10617.573  1
104  11055.703  1
104.05  11111.988  1
104.1  11062.298  1
104.15  10606.16  1
104.2  11147.165  1
104.25  10947.734  1
104.3  10458.132  1
104.35  10728.442  1
104.4  10855.767  1
104.45  10994.473  1
104.5  10507.82  1
104.55  10737.809  1
104.6  10530.766  1
104.65  10589.989  1
104.7  10412.988  1
104.75  10830.748  1
104.8  10589.922  1
104.85  10864.272  1
104.9  11006.212  1
104.95  10525.772  1
105  10856.82  1
105.05  10761.921  1
105.1  10698.267  1
105.15  10931.47  1
105.2  10986.836  1
105.25  10868.008  1
105.3  11122.723  1
105.35  11279.796  1
105.4  11311.018  1
105.45  11708.172  1
105.5  11673.143  1
105.55  11634.655  1
105.6  12084.965  1
105.65  12445.111  1
105.7  12725.785  1
105.75  12508.051  1
105.8  13044.044  1
105.85  13418.715  1
105.9  13989.013  1
105.95  15152.702  1
106  15102.811  1
106.05  16019.568  1
106.1  16482.458  1
106.15  17518.048  1
106.2  18461.951  1
106.25  19347.002  1
106.3  21313.614  1
106.35  22821.645  1
106.4  24144.385  1
106.45  25507.8  1
106.5  27304.739  1
106.55  29091.229  1
106.6  31639.934  1
106.65  33575.446  1
106.7  35888.149  1
106.75  38309.217  1
106.8  41518.393  1
106.85  44195.058  1
106.9  46486.086  1
106.95  48054.701  1
107  50071.854  1
107.05  53165.755  1
107.1  55255.274  1
107.15  57294.379  1
107.2  59086.487  1
107.25  60815.089  1
107.3  62629.048  1
107.35  64079.036  1
107.4  64563.233  1
107.45  64358.53  1
107.5  65340.918  1
107.55  64879.183  1
107.6  65906.195  1
107.65  64957.485  1
107.7  64458.667  1
107.75  63242.009  1
107.8  61530.628  1
107.85  62432.28  1
107.9  60225.435  1
107.95  59595.238  1
108  58949.687  1
108.05  58956.246  1
108.1  58317.145  1
108.15  58823.014  1
108.2  59633.644  1
108.25  59865.973  1
108.3  60266.125  1
108.35  60106.144  1
108.4  62303.105  1
108.45  62542.758  1
108.5  63815.022  1
108.55  65728.663  1
108.6  68443.938  1
108.65  68869.355  1
108.7  70264.911  1
108.75  70794.553  1
108.8  74012.791  1
108.85  72641.102  1
108.9  73717.588  1
108.95  73525.799  1
109  73814.569  1
109.05  71361.052  1
109.1  71903.908  1
109.15  69452.042  1
109.2  67634.486  1
109.25  64575.421  1
109.3  62692.629  1
109.35  59944.936  1
109.4  56504.641  1
109.45  53175.338  1
109.5  49556.37  1
109.55  46443.146  1
109.6  42477.59  1
109.65  39991.874  1
109.7  36227.895  1
109.75  32590.286  1
109.8  29881.683  1
109.85  26985.081  1
109.9  25165.397  1
109.95  22300.842  1
110  20320.072  1
110.05  18569.674  1
110.1  17769.858  1
110.15  16041.89  1
110.2  14806.161  1
110.25  14420.46  1
110.3  13316.147  1
110.35  12784.24  1
110.4  12378.479  1
110.45  11652.484  1
110.5  10841.848  1
110.55  11051.973  1
110.6  10565.584  1
110.65  10430.005  1
110.7  10571.663  1
110.75  10376.902  1
110.8  10189.888  1
110.85  9859.9164  1
110.9  9974.0796  1
110.95  9760.7851  1
111  9497.6865  1
111.05  9201.4543  1
111.1  9406.5852  1
111.15  9531.3126  1
111.2  9443.8032  1
111.25  9338.4148  1
111.3  8997.657  1
111.35  9037.3701  1
111.4  9435.9129  1
111.45  8730.1672  1
111.5  9335.644  1
111.55  9307.9141  1
111.6  8807.6391  1
111.65  9230.1394  1
111.7  8694.0459  1
111.75  8766.4642  1
111.8  9021.6491  1
111.85  8904.4479  1
111.9  9242.8503  1
111.95  8565.1451  1
112  8981.9517  1
112.05  9135.7944  1
112.1  9115.7333  1
112.15  8976.3026  1
112.2  8653.0689  1
112.25  8838.7294  1
112.3  8713.3796  1
112.35  8580.9762  1
112.4  8712.2259  1
112.45  8819.983  1
112.5  8459.1404  1
112.55  8827.145  1
112.6  8525.7457  1
112.65  8704.8142  1
112.7  8833.5904  1
112.75  8632.1075  1
112.8  9003.7851  1
112.85  8530.6962  1
112.9  8537.3327  1
112.95  8430.2735  1
113  8385.6967  1
113.05  8765.986  1
113.1  8678.6117  1
113.15  8548.0604  1
113.2  8262.7619  1
113.25  8451.6174  1
113.3  8544.7091  1
113.35  8258.1266  1
113.4  8448.9658  1
113.45  8777.4439  1
113.5  8685.5284  1
113.55  8690.9889  1
113.6  8309.9199  1
113.65  8366.8024  1
113.7  8581.3947  1
113.75  8527.3504  1
113.8  8531.2166  1
113.85  8416.1855  1
113.9  8476.493  1
113.95  8595.9116  1
114  8661.7399  1

# values in kinetic energy
# Region:            Si2p
# Acquisition Date:  05/19/11 16:39:40
# Analysis Method:   XPS
# Analyzer:          PHOIBOS HSA3500 DLSEGD 150 R6[HWType 30:15] DLSEGD
# Analyzer Lens:     MediumArea:1.5kV
# Analyzer Slit:     1:0.2x20\1:0.25x20
# Scan Mode:         FixedAnalyzerTransmission
# Number of Scans:   1
# Curves/Scan:       1
# Values/Curve:      501
# Dwell Time:        0.2
# Excitation Energy: 640
# Kinetic Energy:    533
# Pass Energy:       10
# Bias Voltage:      80
# Detector Voltage:  1950
# Eff. Workfunction: 4.387
# Source:            AMC-Monochromator
# Remote:            RemoteInput
# Comment:           
#
# RemoteInfo: RemoteInput
# Parameter: "ADC channel 1 active" = true
# Parameter: "    channel 1 name" = TEY (old: I0)
# Parameter: "    channel 1 input scaling" = 1.000000
# Parameter: "ADC channel 2 active" = false
# Parameter: "    channel 2 name" = 3
# Parameter: "    channel 2 input scaling" = 1.000000
# Parameter: "ADC channel 3 active" = true
# Parameter: "    channel 3 name" = I0 (old: TEY)
# Parameter: "    channel 3 input scaling" = 1.000000
# Parameter: "ADC channel 4 active" = false
# Parameter: "    channel 4 name" = 4
# Parameter: "    channel 4 input scaling" = 1.000000
# Parameter: "ADC channel 5 active" = false
# Parameter: "    channel 5 name" = 5
# Parameter: "    channel 5 input scaling" = 1.000000
# Parameter: "ADC channel 6 active" = false
# Parameter: "    channel 6 name" = 6
# Parameter: "    channel 6 input scaling" = 1.000000
# Parameter: "ADC channel 7 active" = false
# Parameter: "    channel 7 name" = 7
# Parameter: "    channel 7 input scaling" = 1.000000
# Parameter: "ADC channel 8 active" = false
# Parameter: "    channel 8 name" = 
# Parameter: "    channel 8 input scaling" = 1.000000
# Parameter: "Logfile" = 

# Cycle: 0
#
# Cycle: 0, Curve: 0
# scaling factors added
#
# ColumnLabels: energy counts/s scaling
#
533  3824.8647  1
533.02  4066.0549  1
533.04  3821.0752  1
533.06  3656.0807  1
533.08  3656.7142  1
533.1  3845.2418  1
533.12  3932.5743  1
533.14  3847.8601  1
533.16  4000.5285  1
533.18  4030.6406  1
533.2  3698.7027  1
533.22  3623.649  1
533.24  3714.5061  1
533.26  3558.5359  1
533.28  3949.7016  1
533.3  3476.7252  1
533.32  3639.6028  1
533.34  3728.5796  1
533.36  3710.6201  1
533.38  3866.6004  1
533.4  3777.2377  1
533.42  3838.938  1
533.44  3731.3425  1
533.46  3674.9148  1
533.48  3585.139  1
533.5  3493.6274  1
533.52  3477.5402  1
533.54  3768.2824  1
533.56  3645.5475  1
533.58  3473.1642  1
533.6  3464.0478  1
533.62  3472.8226  1
533.64  3649.0731  1
533.66  3795.3154  1
533.68  3607.9705  1
533.7  3752.3037  1
533.72  3409.6702  1
533.74  3307.4304  1
533.76  3437.7449  1
533.78  3512.1102  1
533.8  3808.249  1
533.82  3662.0589  1
533.84  3778.0362  1
533.86  3385.6309  1
533.88  3520.8752  1
533.9  3615.9488  1
533.92  3525.6153  1
533.94  3425.9123  1
533.96  3443.9494  1
533.98  3678.1831  1
534  3710.9334  1
534.02  3680.5941  1
534.04  3563.8107  1
534.06  3538.8507  1
534.08  3458.2106  1
534.1  3615.6022  1
534.12  3287.7122  1
534.14  3404.8538  1
534.16  3735.9019  1
534.18  3466.5375  1
534.2  3758.4801  1
534.22  3507.929  1
534.24  3348.0392  1
534.26  3450.1798  1
534.28  3370.003  1
534.3  3740.9973  1
534.32  3529.7513  1
534.34  3474.8836  1
534.36  3550.751  1
534.38  3634.5048  1
534.4  3356.5166  1
534.42  3384.6663  1
534.44  3484.558  1
534.46  3774.1662  1
534.48  3757.8507  1
534.5  3691.2436  1
534.52  3404.4779  1
534.54  3729.2927  1
534.56  3643.6816  1
534.58  3556.8124  1
534.6  3611.1237  1
534.62  3554.5921  1
534.64  3642.9637  1
534.66  3515.4134  1
534.68  3794.5775  1
534.7  3629.1233  1
534.72  3578.5974  1
534.74  3762.5951  1
534.76  3975.5309  1
534.78  3901.6732  1
534.8  4017.0912  1
534.82  3701.5274  1
534.84  3702.8666  1
534.86  3886.385  1
534.88  3960.7982  1
534.9  4131.7324  1
534.92  4316.2742  1
534.94  4211.2381  1
534.96  4418.9765  1
534.98  4371.8355  1
535  4611.285  1
535.02  4424.9256  1
535.04  4496.8709  1
535.06  4517.6178  1
535.08  4342.4338  1
535.1  4674.6587  1
535.12  4951.6443  1
535.14  5016.8803  1
535.16  5247.1427  1
535.18  5110.1689  1
535.2  5255.1455  1
535.22  5656.2387  1
535.24  5591.7636  1
535.26  5776.6  1
535.28  6157.9825  1
535.3  6153.9117  1
535.32  6546.7907  1
535.34  6700.9747  1
535.36  6786.4021  1
535.38  6814.0588  1
535.4  7600.9571  1
535.42  7663.1246  1
535.44  8107.4936  1
535.46  8078.5209  1
535.48  8387.5046  1
535.5  8212.0337  1
535.52  9022.8625  1
535.54  9479.2902  1
535.56  9344.154  1
535.58  9812.454  1
535.6  9902.4916  1
535.62  11029.189  1
535.64  10703.063  1
535.66  11393.406  1
535.68  11821.746  1
535.7  12412.708  1
535.72  13235.542  1
535.74  13303.56  1
535.76  13392.763  1
535.78  14005.324  1
535.8  14275.607  1
535.82  15090.977  1
535.84  15438.168  1
535.86  16106.068  1
535.88  17379.429  1
535.9  17767.578  1
535.92  17934.423  1
535.94  18438.864  1
535.96  18975.869  1
535.98  19798.207  1
536  20313.981  1
536.02  20807.605  1
536.04  21203.519  1
536.06  22108.304  1
536.08  22564.11  1
536.1  22612.15  1
536.12  24106.915  1
536.14  23939.278  1
536.16  24816.808  1
536.18  24609.192  1
536.2  25947.106  1
536.22  26644.977  1
536.24  27951.178  1
536.26  28420.864  1
536.28  28371.374  1
536.3  29060.21  1
536.32  30175.577  1
536.34  30612.433  1
536.36  31434.562  1
536.38  31669.326  1
536.4  30820.358  1
536.42  31803.465  1
536.44  32020.535  1
536.46  33729.935  1
536.48  33957.749  1
536.5  34377.309  1
536.52  34600.521  1
536.54  34516.865  1
536.56  36030.639  1
536.58  35773.507  1
536.6  35998.381  1
536.62  35847.987  1
536.64  36168.32  1
536.66  36723.174  1
536.68  36674.236  1
536.7  37571.641  1
536.72  37596.712  1
536.74  37074.069  1
536.76  38113.134  1
536.78  37075.243  1
536.8  37347.603  1
536.82  37451.878  1
536.84  37208.711  1
536.86  37250.922  1
536.88  37244.762  1
536.9  36825.347  1
536.92  37297.428  1
536.94  36658.409  1
536.96  36029.602  1
536.98  36361.061  1
537  35698.344  1
537.02  35799.739  1
537.04  35112.191  1
537.06  34363.807  1
537.08  34058.019  1
537.1  34455.501  1
537.12  33294.843  1
537.14  33374.906  1
537.16  32672.254  1
537.18  32158.325  1
537.2  31520.056  1
537.22  31688.902  1
537.24  30692.898  1
537.26  30266.648  1
537.28  29338.511  1
537.3  28921.779  1
537.32  28484.396  1
537.34  27723.316  1
537.36  27805.91  1
537.38  26509.774  1
537.4  26500.921  1
537.42  25449.728  1
537.44  24669.625  1
537.46  24374.908  1
537.48  24130.633  1
537.5  23388.359  1
537.52  22697.24  1
537.54  22665.8  1
537.56  21480.057  1
537.58  21338.628  1
537.6  20755.229  1
537.62  20025.691  1
537.64  19735.865  1
537.66  19334.289  1
537.68  18454.223  1
537.7  18120.648  1
537.72  17634.709  1
537.74  17195.497  1
537.76  16689.773  1
537.78  16684.81  1
537.8  16423.47  1
537.82  15161.861  1
537.84  15147.805  1
537.86  14963.7  1
537.88  14552.779  1
537.9  14029.652  1
537.92  14118.75  1
537.94  13988.14  1
537.96  13972.558  1
537.98  13249.786  1
538  12760.84  1
538.02  12829.371  1
538.04  12348.476  1
538.06  11962.9  1
538.08  12000.756  1
538.1  11854.877  1
538.12  11335.542  1
538.14  11237.253  1
538.16  11104.102  1
538.18  10803.689  1
538.2  9893.1551  1
538.22  10223.714  1
538.24  9956.6385  1
538.26  9738.0895  1
538.28  9301.7607  1
538.3  8999.9463  1
538.32  9278.3454  1
538.34  8863.8456  1
538.36  8819.8339  1
538.38  8467.6575  1
538.4  8337.4963  1
538.42  8021.3059  1
538.44  8234.4524  1
538.46  7668.3293  1
538.48  7143.5165  1
538.5  7702.6241  1
538.52  7650.2454  1
538.54  7282.8936  1
538.56  7044.8419  1
538.58  6800.51  1
538.6  6803.2373  1
538.62  7061.0739  1
538.64  6709.7812  1
538.66  6647.8909  1
538.68  6756.671  1
538.7  6787.75  1
538.72  6498.5912  1
538.74  7091.2926  1
538.76  7393.3822  1
538.78  6826.7245  1
538.8  6915.809  1
538.82  7001.1824  1
538.84  6325.7772  1
538.86  6626.7166  1
538.88  6807.9236  1
538.9  7008.7804  1
538.92  6831.4144  1
538.94  6680.3868  1
538.96  6939.5032  1
538.98  6889.8349  1
539  6524.1817  1
539.02  6630.3771  1
539.04  6526.1841  1
539.06  6516.8056  1
539.08  6104.3883  1
539.1  6427.7087  1
539.12  6189.6598  1
539.14  6230.0382  1
539.16  5946.4961  1
539.18  5935.7158  1
539.2  6074.6875  1
539.22  5841.5825  1
539.24  5978.9407  1
539.26  6184.8348  1
539.28  6359.8273  1
539.3  6359.0278  1
539.32  6475.1501  1
539.34  6480.1546  1
539.36  6583.7495  1
539.38  6825.7612  1
539.4  6893.5274  1
539.42  6986.2657  1
539.44  7265.3403  1
539.46  7633.9748  1
539.48  7798.2744  1
539.5  7869.6339  1
539.52  8109.8421  1
539.54  8368.3729  1
539.56  8651.3121  1
539.58  9116.0609  1
539.6  9615.88  1
539.62  10256.698  1
539.64  10775.793  1
539.66  11285.808  1
539.68  12195.837  1
539.7  12788.118  1
539.72  14466.208  1
539.74  15429.579  1
539.76  16521.644  1
539.78  17749.582  1
539.8  19601.996  1
539.82  21639.072  1
539.84  23578.351  1
539.86  25778.724  1
539.88  27832.284  1
539.9  30472.982  1
539.92  32701.841  1
539.94  34505.56  1
539.96  35802.18  1
539.98  37301.074  1
540  38597.556  1
540.02  37427.733  1
540.04  37175.948  1
540.06  36361.344  1
540.08  34866.815  1
540.1  32598.02  1
540.12  30547.676  1
540.14  28202.879  1
540.16  25988.768  1
540.18  23722.023  1
540.2  21679.884  1
540.22  20861.521  1
540.24  19793.081  1
540.26  19518.956  1
540.28  20079.026  1
540.3  20387.177  1
540.32  21271.072  1
540.34  22972.857  1
540.36  25039.906  1
540.38  27228.228  1
540.4  30259.78  1
540.42  34264.061  1
540.44  38567.492  1
540.46  42385.878  1
540.48  46478.917  1
540.5  51293.885  1
540.52  56145.16  1
540.54  59064.478  1
540.56  62545.268  1
540.58  66092.621  1
540.6  66967.355  1
540.62  66576.352  1
540.64  67300.22  1
540.66  63989.171  1
540.68  60059.857  1
540.7  55527.907  1
540.72  49662.537  1
540.74  44529.35  1
540.76  38976.652  1
540.78  33072.855  1
540.8  28625.309  1
540.82  24494.366  1
540.84  20246.474  1
540.86  16875.008  1
540.88  13916.075  1
540.9  12275.374  1
540.92  9852.0139  1
540.94  8675.259  1
540.96  7355.789  1
540.98  6603.387  1
541  6127.2775  1
541.02  5429.1466  1
541.04  4676.2852  1
541.06  4106.1742  1
541.08  4162.8314  1
541.1  3518.2958  1
541.12  3505.805  1
541.14  3119.306  1
541.16  3068.7378  1
541.18  3007.5312  1
541.2  2553.0206  1
541.22  2583.9268  1
541.24  2710.3696  1
541.26  2553.467  1
541.28  2611.5705  1
541.3  2417.1399  1
541.32  2281.6383  1
541.34  2155.3653  1
541.36  2294.8344  1
541.38  2374.7744  1
541.4  2263.0796  1
541.42  2249.1663  1
541.44  2288.9944  1
541.46  2064.3882  1
541.48  2210.8759  1
541.5  2080.3146  1
541.52  2180.8378  1
541.54  2013.4479  1
541.56  2094.0155  1
541.58  1983.2772  1
541.6  1974.8624  1
541.62  2140.1641  1
541.64  2082.5804  1
541.66  2094.8061  1
541.68  2181.5065  1
541.7  1855.2696  1
541.72  1878.8976  1
541.74  2060.2757  1
541.76  2038.7514  1
541.78  1797.7822  1
541.8  1707.5954  1
541.82  2103.8074  1
541.84  1917.9739  1
541.86  1830.0699  1
541.88  1988.7128  1
541.9  1927.6817  1
541.92  1983.0787  1
541.94  1751.8804  1
541.96  1846.81  1
541.98  1811.1632  1
542  1948.9491  1
542.02  1873.4904  1
542.04  1740.9492  1
542.06  1875.29  1
542.08  1682.5456  1
542.1  1749.146  1
542.12  1650.6489  1
542.14  1704.3729  1
542.16  1900.7756  1
542.18  1721.9545  1
542.2  1791.9227  1
542.22  1846.1714  1
542.24  1706.7921  1
542.26  1823.1555  1
542.28  1836.0356  1
542.3  1720.6098  1
542.32  1527.7487  1
542.34  1703.5693  1
542.36  1682.1923  1
542.38  1715.4081  1
542.4  1724.5968  1
542.42  1738.3117  1
542.44  1816.3281  1
542.46  1802.7086  1
542.48  1641.8341  1
542.5  1756.2698  1
542.52  1639.2061  1
542.54  1582.6166  1
542.56  1732.2556  1
542.58  1697.0294  1
542.6  1628.1966  1
542.62  1710.7607  1
542.64  1736.145  1
542.66  1619.5299  1
542.68  1631.4293  1
542.7  1578.0507  1
542.72  1661.8824  1
542.74  1683.985  1
542.76  1732.3958  1
542.78  1768.9521  1
542.8  1550.4553  1
542.82  1751.9028  1
542.84  1615.8913  1
542.86  1595.3908  1
542.88  1527.4461  1
542.9  1556.2556  1
542.92  1456.1946  1
542.94  1623.4589  1
542.96  1540.2478  1
542.98  1603.0982  1
543  1491.6052  1

# values in kinetic energy
# Region:            O1s_XAS_45°
# Acquisition Date:  05/19/11 08:41:43
# Analysis Method:   XPS
# Analyzer:          PHOIBOS HSA3500 DLSEGD 150 R6[HWType 30:15] DLSEGD
# Analyzer Lens:     MediumArea:3.5kV
# Analyzer Slit:     1:0.2x20\1:0.25x20
# Scan Mode:         ConstantFinalState
# Number of Scans:   1
# Curves/Scan:       1
# Values/Curve:      301
# Dwell Time:        0.1
# Excitation Energy: 525
# Kinetic Energy:    50
# Pass Energy:       20
# Bias Voltage:      80
# Detector Voltage:  1950
# Eff. Workfunction: 4.387
# Source:            AMC-Monochromator
# Remote:            RemoteInput
#                    test comment 3
#
# RemoteInfo: RemoteInput
# Parameter: "ADC channel 1 active" = true
# Parameter: "    channel 1 name" = TEY (old: I0)
# Parameter: "    channel 1 input scaling" = 1.000000
# Parameter: "ADC channel 2 active" = false
# Parameter: "    channel 2 name" = 3
# Parameter: "    channel 2 input scaling" = 1.000000
# Parameter: "ADC channel 3 active" = true
# Parameter: "    channel 3 name" = I0 (old: TEY)
# Parameter: "    channel 3 input scaling" = 1.000000
# Parameter: "ADC channel 4 active" = false
# Parameter: "    channel 4 name" = 4
# Parameter: "    channel 4 input scaling" = 1.000000
# Parameter: "ADC channel 5 active" = false
# Parameter: "    channel 5 name" = 5
# Parameter: "    channel 5 input scaling" = 1.000000
# Parameter: "ADC channel 6 active" = false
# Parameter: "    channel 6 name" = 6
# Parameter: "    channel 6 input scaling" = 1.000000
# Parameter: "ADC channel 7 active" = false
# Parameter: "    channel 7 name" = 7
# Parameter: "    channel 7 input scaling" = 1.000000
# Parameter: "ADC channel 8 active" = false
# Parameter: "    channel 8 name" = 
# Parameter: "    channel 8 input scaling" = 1.000000
# Parameter: "Logfile" = 

# Cycle: 0
#
# Cycle: 0, Curve: 0
# scaling factors added
#
# ColumnLabels: energy counts/s scaling
#
525  140.83391  1
525.1  40802.143  1
525.2  41985.851  1
525.3  42185.348  1
525.4  42099.531  1
525.5  41202.627  1
525.6  42458.46  1
525.7  41489.99  1
525.8  42925.572  1
525.9  41391.432  1
526  41559.137  1
526.1  41303.897  1
526.2  43184.876  1
526.3  42350.326  1
526.4  42317.104  1
526.5  41813.504  1
526.6  42276.863  1
526.7  41976.829  1
526.8  42247.821  1
526.9  42307.952  1
527  42045.519  1
527.1  42571.467  1
527.2  41507.125  1
527.3  41523.917  1
527.4  42005.638  1
527.5  41250.189  1
527.6  42031.231  1
527.7  42023.564  1
527.8  41982.71  1
527.9  40888.914  1
528  42137.837  1
528.1  42099.96  1
528.2  41151.8  1
528.3  42027.587  1
528.4  41450.193  1
528.5  41321.88  1
528.6  41867.954  1
528.7  40591.804  1
528.8  40743.066  1
528.9  41492.598  1
529  42337.888  1
529.1  40811.324  1
529.2  41529.321  1
529.3  41684.582  1
529.4  41236.884  1
529.5  41855.97  1
529.6  40683.191  1
529.7  41941.107  1
529.8  40861.754  1
529.9  41465.771  1
530  41628.364  1
530.1  40906.068  1
530.2  41561.798  1
530.3  41213.153  1
530.4  41602.728  1
530.5  41236.925  1
530.6  40364.739  1
530.7  41250.752  1
530.8  40463.446  1
530.9  41212.079  1
531  40498.814  1
531.1  40680.103  1
531.2  40154.816  1
531.3  41706.371  1
531.4  39966.568  1
531.5  42913.104  1
531.6  42076.186  1
531.7  40541.545  1
531.8  41439.888  1
531.9  40972.372  1
532  41205.891  1
532.1  41496.427  1
532.2  41747.17  1
532.3  42082.933  1
532.4  41628.392  1
532.5  41469.694  1
532.6  42629.776  1
532.7  40947.264  1
532.8  41452.337  1
532.9  41453.32  1
533  41878.77  1
533.1  42056.385  1
533.2  40589.01  1
533.3  42102.195  1
533.4  42843.069  1
533.5  42021.386  1
533.6  41211.675  1
533.7  42017.889  1
533.8  43071.246  1
533.9  42825.233  1
534  42762.738  1
534.1  42954.043  1
534.2  43333.831  1
534.3  43052.921  1
534.4  42723.223  1
534.5  43941.494  1
534.6  43041.721  1
534.7  43836.856  1
534.8  44337.938  1
534.9  43682.784  1
535  44221.385  1
535.1  44216.943  1
535.2  45523.021  1
535.3  46111.181  1
535.4  46827.054  1
535.5  45101.856  1
535.6  45756.985  1
535.7  46082.639  1
535.8  46659.603  1
535.9  47519.296  1
536  48023.512  1
536.1  48116.129  1
536.2  48117.985  1
536.3  49302.442  1
536.4  50677.738  1
536.5  50504.7  1
536.6  53527.061  1
536.7  53831.151  1
536.8  56585.014  1
536.9  55860.474  1
537  57537.188  1
537.1  57475.963  1
537.2  59283.712  1
537.3  60320.231  1
537.4  59866.641  1
537.5  60357.909  1
537.6  62134.198  1
537.7  62816.746  1
537.8  62846.601  1
537.9  62018.725  1
538  63101.296  1
538.1  61421.067  1
538.2  63202.623  1
538.3  63060.661  1
538.4  62911.112  1
538.5  62511.326  1
538.6  63316.041  1
538.7  63055.153  1
538.8  60864.269  1
538.9  62237.621  1
539  60424.487  1
539.1  61203.919  1
539.2  61745.127  1
539.3  61839.642  1
539.4  61639.005  1
539.5  61929.378  1
539.6  61692.333  1
539.7  61674.181  1
539.8  60167.858  1
539.9  60948.681  1
540  59854.958  1
540.1  60250.159  1
540.2  60844.422  1
540.3  60604.134  1
540.4  59251.584  1
540.5  57318.714  1
540.6  59364.219  1
540.7  58951.82  1
540.8  59136.603  1
540.9  58082.085  1
541  57783.235  1
541.1  57803.014  1
541.2  55932.757  1
541.3  57106.801  1
541.4  56261.289  1
541.5  56522.845  1
541.6  55376.184  1
541.7  55049.791  1
541.8  55085.728  1
541.9  54456.828  1
542  54135.016  1
542.1  53969.272  1
542.2  52708.535  1
542.3  54966.157  1
542.4  53642.54  1
542.5  53987.105  1
542.6  53422.273  1
542.7  52475.762  1
542.8  52376.532  1
542.9  51531.909  1
543  50557.298  1
543.1  51792.895  1
543.2  51863.004  1
543.3  52287.217  1
543.4  50091.257  1
543.5  51486.63  1
543.6  50529.853  1
543.7  50537.797  1
543.8  50279.711  1
543.9  50099.822  1
544  50885.143  1
544.1  48985.619  1
544.2  50419.369  1
544.3  49174.771  1
544.4  48579.306  1
544.5  50488.846  1
544.6  49211.147  1
544.7  47524.319  1
544.8  49268.125  1
544.9  48916.507  1
545  49038.772  1
545.1  47323.889  1
545.2  47465.931  1
545.3  48078.967  1
545.4  48702.875  1
545.5  48240.685  1
545.6  48595.864  1
545.7  47099.483  1
545.8  47952.381  1
545.9  47125.866  1
546  47600.518  1
546.1  46447.558  1
546.2  45643.912  1
546.3  46373.97  1
546.4  46027.039  1
546.5  47222.914  1
546.6  46110.834  1
546.7  46981.194  1
546.8  45577.537  1
546.9  46307.103  1
547  45919.451  1
547.1  46861.83  1
547.2  46022.4  1
547.3  45263.874  1
547.4  46321.731  1
547.5  46809.35  1
547.6  45593.447  1
547.7  45710.72  1
547.8  46047.759  1
547.9  45087.853  1
548  44960.5  1
548.1  45943.105  1
548.2  45034.859  1
548.3  45677.631  1
548.4  44992.443  1
548.5  45931.838  1
548.6  45758.037  1
548.7  44127.886  1
548.8  44809.596  1
548.9  45443.212  1
549  45657.723  1
549.1  44862.762  1
549.2  44871.952  1
549.3  45261.615  1
549.4  44590.495  1
549.5  45533.704  1
549.6  45982.045  1
549.7  44446.135  1
549.8  44783.506  1
549.9  45693.897  1
550  45061.557  1
550.1  45789.855  1
550.2  45470.685  1
550.3  44784.449  1
550.4  45492.486  1
550.5  44777.96  1
550.6  45364.906  1
550.7  45159.073  1
550.8  46107.229  1
550.9  46138.574  1
551  46525.116  1
551.1  46237.057  1
551.2  45912.636  1
551.3  44616.095  1
551.4  45759.625  1
551.5  45574.707  1
551.6  45832.492  1
551.7  46268.627  1
551.8  45829.905  1
551.9  45680.757  1
552  44958.978  1
552.1  45933.515  1
552.2  46834.034  1
552.3  46703.864  1
552.4  46389.392  1
552.5  46021.564  1
552.6  46893.841  1
552.7  46133.662  1
552.8  46913.337  1
552.9  46624.994  1
553  47251.135  1
553.1  46635.879  1
553.2  46742.068  1
553.3  47107.356  1
553.4  47001.001  1
553.5  46800.415  1
553.6  47205.591  1
553.7  46520.249  1
553.8  46790.909  1
553.9  48038.278  1
554  47276.402  1
554.1  47972.111  1
554.2  47698.16  1
554.3  48662.878  1
554.4  47647.08  1
554.5  48269.73  1
554.6  47739.237  1
554.7  48195.574  1
554.8  48749.226  1
554.9  47669.722  1
555  47753.422  1

